2theta chi X Y I
15.682621   -174.718743   1027.110000   1293.280000   70931.270
32.603557   -145.591132   1379.170000   1553.580000   51933.840
27.362926   -147.948976   1288.110000   1460.160000   22795.070
8.013682   29.971041   926.220000   872.060000   19489.690
21.959927   73.015582   595.460000   876.440000   19058.790
22.799529   -24.557616   1183.270000   598.920000   17182.880
35.909792   150.516688   626.120000   1661.280000   15825.390
34.355406   168.427131   856.140000   1702.520000   15486.200
34.488247   -111.030148   1672.670000   1258.620000   13318.810
27.487121   -114.311030   1497.400000   1224.700000   13145.990
10.585665   -116.080159   1176.090000   1086.190000   11799.930
17.326034   137.823705   780.270000   1242.530000   11662.160
15.950405   145.152321   828.680000   1246.060000   10727.930
24.679951   21.936704   819.910000   552.840000   10271.900
16.921026   23.339795   873.560000   706.970000   10010.520
34.865406   -173.258380   1085.800000   1725.830000   9107.770
30.954817   -67.047482   1579.390000   754.630000   8515.140
11.874437   -101.050640   1216.490000   1042.280000   8262.020
37.220366   -37.147729   1481.200000   364.840000   6598.440
32.553143   116.345044   399.870000   1297.190000   6505.450
26.427864   119.952608   548.250000   1260.320000   6137.870
23.330376   -118.740834   1396.710000   1217.560000   5781.180
28.859346   -97.266994   1573.490000   1073.130000   5481.590
22.552949   -152.812091   1199.060000   1387.530000   5182.440
27.996581   -39.236134   1352.760000   568.030000   5055.990
26.941722   88.344855   467.050000   984.600000   4950.230
22.628529   124.326391   638.870000   1246.590000   4761.410
2.096764   121.206805   967.150000   1019.900000   4673.940
3.511316   159.540840   977.500000   1060.310000   4649.480
16.043565   80.436513   702.520000   949.880000   4413.680
32.304803   68.284566   383.770000   754.580000   4400.610
15.163253   -85.296945   1283.340000   976.690000   4305.200
37.148678   21.616941   707.200000   261.110000   4170.570
15.370851   -29.254720   1140.930000   748.400000   4160.120
31.185012   151.912173   701.050000   1560.170000   4044.720
34.945712   -94.955183   1730.330000   1063.320000   3856.170
11.676671   25.800349   905.640000   804.810000   3693.430
19.403397   -8.582291   1055.140000   634.640000   3277.590
18.801016   56.141743   703.420000   801.020000   3232.590
34.178728   85.650151   289.690000   945.970000   3125.110
10.285037   -127.486928   1151.050000   1115.850000   3088.730
18.298367   -77.830378   1339.110000   926.870000   2830.160
31.304913   -45.981225   1458.760000   556.690000   2775.350
15.258914   151.050794   861.480000   1250.420000   2670.740
35.375507   115.531242   327.890000   1321.030000   2634.420
24.345813   52.873722   621.540000   713.500000   2612.620
35.401670   -21.633018   1274.860000   306.950000   2377.760
21.678360   -42.273781   1280.510000   691.440000   2278.070
25.757860   -7.178227   1063.250000   497.790000   2195.880
31.630214   -126.313904   1520.650000   1382.650000   2124.740
36.175068   -86.896488   1765.960000   958.470000   2077.070
34.581186   -66.039361   1660.860000   706.310000   2052.310
7.460390   -47.554887   1101.370000   907.290000   1952.150
31.290382   -173.166791   1075.860000   1633.060000   1878.930
24.672500   -100.570282   1473.720000   1088.400000   1877.760
39.821195   -110.439665   1819.620000   1305.460000   1746.380
30.871804   -88.413781   1626.900000   982.640000   1676.950
22.013962   92.293040   576.200000   1016.970000   1646.400
20.134857   129.096027   701.500000   1242.550000   1591.710
23.191305   -71.686397   1426.670000   858.780000   1576.400
27.469864   170.642338   911.320000   1538.140000   1466.190
21.734610   22.279457   841.450000   613.020000   1399.400
28.187113   -22.947407   1219.190000   482.300000   1361.220
38.630799   -44.598897   1588.650000   403.050000   1343.440
35.480016   140.254473   521.920000   1574.920000   1331.830
10.442837   101.670257   810.650000   1039.110000   1277.200
35.047153   1.393137   982.110000   264.380000   1253.580
33.084724   42.600927   537.370000   496.910000   1183.420
30.135456   95.385830   393.710000   1057.160000   1105.270
35.787922   93.819719   245.420000   1050.380000   1055.910
14.737670   -10.441344   1050.010000   728.620000   1019.630
38.607677   57.065166   296.950000   544.570000   943.570
26.386021   70.253828   510.170000   824.170000   887.260
19.014309   -127.729584   1285.920000   1221.220000   860.610
5.484536   -63.419686   1090.080000   954.930000   797.370
36.653899   -65.676440   1711.330000   678.470000   772.050
25.830018   -47.943682   1377.040000   659.840000   708.970
30.102715   21.701868   775.110000   434.930000   706.880
14.835912   60.630565   757.840000   863.720000   703.030
4.993345   169.876867   983.890000   1090.230000   655.210
35.295892   5.762795   925.430000   261.100000   646.940
13.117976   -93.099877   1244.110000   1013.220000   550.970
33.510845   -49.852570   1530.970000   552.130000   492.940
# File created at Fri Oct 13 11:16:09 2023 with IOLaueTools.py
# From: calib_.dat
# Calibration parameters
# dd     :   77.0
# xcen     :   1000.0
# ycen     :   1000.0
# xbet     :   0.0
# xgam     :   0.0
# pixelsize     :   0.0734
# CCDLabel     :   sCMOS
# framedim     :   [2018.0, 2016.0]
# detectordiameter     :   162.93332000000004
# kf_direction     :   X>0