#Strain and Orientation Refinement from experimental file: dat_Ge0001.cor
#File created at Wed Jun 14 13:49:49 2023 with LaueToolsGUI.py
#Number of indexed spots: 83
#Mean Deviation(pixel): 0.401
##spot_index Intensity h k l pixDev energy(keV) Xexp Yexp 2theta_exp chi_exp Xtheo Ytheo 2theta_theo chi_theo Qx Qy Qz
59.000000 1576.400000 3.000000 3.000000 1.000000 0.516306 6.014594 1426.670000 858.780000 105.119126 -23.684432 1426.323716 858.397039 105.143115 -23.665140 -0.611856 -0.187963 0.428902
46.000000 2377.760000 5.000000 3.000000 1.000000 0.438435 7.092274 1274.860000 306.950000 132.149174 -14.810474 1274.956783 307.377620 132.133292 -14.816394 -0.955814 -0.108484 0.410119
8.000000 13318.810000 3.000000 5.000000 1.000000 0.377946 9.872293 1672.670000 1258.620000 82.083074 -35.893491 1672.320588 1258.475938 82.089294 -35.878198 -0.686689 -0.462231 0.639059
16.000000 8515.140000 5.000000 5.000000 1.000000 0.341083 9.584216 1579.390000 754.630000 109.467271 -31.660867 1579.730601 754.611859 109.464922 -31.677311 -1.030647 -0.382751 0.620276
18.000000 6598.440000 7.000000 5.000000 1.000000 0.321746 10.567511 1481.200000 364.840000 127.784496 -26.741688 1481.490108 364.700868 127.785838 -26.757108 -1.374605 -0.303271 0.601493
35.000000 3856.170000 5.000000 7.000000 1.000000 0.570247 13.140535 1730.330000 1063.320000 92.492888 -38.358158 1730.136926 1063.856566 92.465195 -38.350187 -1.105480 -0.657018 0.830433
51.000000 2052.310000 7.000000 7.000000 1.000000 0.131123 13.229077 1660.860000 706.310000 110.994544 -35.434509 1660.851843 706.179131 111.000813 -35.434163 -1.449438 -0.577538 0.811650
63.000000 1343.440000 9.000000 7.000000 1.000000 0.599259 14.147638 1588.650000 403.050000 124.876432 -32.151901 1588.317416 403.548498 124.862313 -32.135963 -1.793395 -0.498059 0.792867
55.000000 1746.380000 5.000000 9.000000 1.000000 0.279387 17.558784 1819.620000 1305.460000 80.397694 -41.821709 1819.768946 1305.223627 80.409915 -41.827248 -1.180313 -0.931286 1.040590
50.000000 2077.070000 7.000000 9.000000 1.000000 0.543495 16.645930 1765.960000 958.470000 97.759033 -39.799423 1766.367488 958.110360 97.775227 -39.815490 -1.524271 -0.851806 1.021807
75.000000 772.050000 9.000000 9.000000 1.000000 0.618343 16.898580 1711.330000 678.470000 111.728643 -37.608496 1711.033910 677.927157 111.756658 -37.596167 -1.868229 -0.772326 1.003024
14.000000 10010.520000 4.000000 2.000000 2.000000 0.258890 6.367096 873.560000 706.970000 114.924680 11.530415 873.472287 706.726421 114.937329 11.535948 -0.730088 0.093128 0.456272
1.000000 51933.840000 2.000000 4.000000 2.000000 0.275742 10.084930 1379.170000 1553.580000 64.331516 -20.837980 1378.935178 1553.724541 64.322187 -20.824247 -0.460964 -0.260619 0.685212
5.000000 17182.880000 6.000000 4.000000 2.000000 0.259673 9.440865 1183.270000 598.920000 120.580048 -8.903979 1183.528783 598.898514 120.579882 -8.920808 -1.148879 -0.101660 0.647646
9.000000 13145.990000 4.000000 6.000000 2.000000 0.332033 12.329351 1497.400000 1224.700000 83.358269 -27.458460 1497.293770 1224.385419 83.376355 -27.452928 -0.879755 -0.455407 0.876586
24.000000 5055.990000 8.000000 6.000000 2.000000 0.443440 12.849125 1352.760000 568.030000 120.831013 -19.485313 1352.325362 567.942087 120.839166 -19.459600 -1.567670 -0.296447 0.839021
22.000000 5481.590000 6.000000 8.000000 2.000000 0.508130 15.512530 1573.490000 1073.130000 92.196866 -31.331842 1573.532501 1073.636350 92.168003 -31.333842 -1.298545 -0.650194 1.067960
42.000000 2775.350000 10.000000 8.000000 2.000000 0.308460 16.380322 1458.760000 556.690000 120.233564 -25.505295 1458.463535 556.775183 120.233148 -25.489195 -1.986461 -0.491235 1.030395
56.000000 1676.950000 8.000000 10.000000 2.000000 0.265843 18.947688 1626.900000 982.640000 97.096805 -33.870764 1626.678935 982.492343 97.105742 -33.860617 -1.717336 -0.844982 1.259334
82.000000 492.940000 12.000000 10.000000 2.000000 0.506735 19.970241 1530.970000 552.130000 119.572382 -29.294195 1531.365254 552.447104 119.553586 -29.314165 -2.405252 -0.686022 1.221769
20.000000 6137.870000 3.000000 1.000000 3.000000 0.455070 7.296827 548.250000 1260.320000 81.761437 30.377894 547.858136 1260.088631 81.776200 30.397287 -0.504363 0.294739 0.502425
30.000000 4400.610000 5.000000 1.000000 3.000000 0.245187 7.991332 383.770000 754.580000 108.434708 37.737942 383.938665 754.757956 108.427862 37.730960 -0.848320 0.374219 0.483642
0.000000 70931.270000 3.000000 3.000000 3.000000 0.487949 9.029503 1027.110000 1293.280000 78.214982 1.633295 1026.927501 1293.732536 78.186156 1.645603 -0.579196 0.020472 0.712582
3.000000 19489.690000 5.000000 3.000000 3.000000 0.506568 9.022043 926.220000 872.060000 105.605049 8.176933 925.901328 872.453776 105.580268 8.197870 -0.923153 0.099952 0.693799
13.000000 10271.900000 7.000000 3.000000 3.000000 0.305529 10.241464 819.910000 552.840000 122.276647 14.867548 819.613627 552.914236 122.271084 14.886009 -1.267111 0.179432 0.675017
32.000000 4170.570000 9.000000 3.000000 3.000000 0.112658 11.901960 707.200000 261.110000 132.706480 21.535122 707.267162 261.200449 132.704210 21.531284 -1.611069 0.258911 0.656234
2.000000 22795.070000 3.000000 5.000000 3.000000 0.315485 12.735003 1288.110000 1460.160000 68.682463 -15.368161 1288.278521 1459.893295 68.698324 -15.378687 -0.654029 -0.253795 0.922739
17.000000 8262.020000 5.000000 5.000000 3.000000 0.496657 11.450915 1216.490000 1042.280000 94.639975 -10.938639 1216.119487 1042.610739 94.618939 -10.914730 -0.997987 -0.174316 0.903956
33.000000 4160.120000 7.000000 5.000000 3.000000 0.472712 11.979722 1140.930000 748.400000 112.898212 -6.091824 1141.286513 748.710411 112.879790 -6.115229 -1.341944 -0.094836 0.885174
48.000000 2195.880000 9.000000 5.000000 3.000000 0.166726 13.211825 1063.250000 497.790000 125.601991 -1.011490 1063.309454 497.945765 125.595104 -1.015402 -1.685902 -0.015356 0.866391
66.000000 1253.580000 11.000000 5.000000 3.000000 0.397420 14.789705 982.110000 264.380000 134.545441 4.311061 981.877435 264.057732 134.555729 4.326348 -2.029860 0.064124 0.847608
21.000000 5781.180000 5.000000 7.000000 3.000000 0.426500 14.985365 1396.710000 1217.560000 83.522463 -21.919272 1396.922068 1217.189960 83.545584 -21.931523 -1.072820 -0.448583 1.114113
41.000000 2830.160000 7.000000 7.000000 3.000000 0.419376 14.628108 1339.110000 926.870000 101.585671 -18.597628 1339.529016 926.887366 101.582844 -18.622718 -1.416777 -0.369103 1.095331
47.000000 2278.070000 9.000000 7.000000 3.000000 0.347666 15.290439 1280.510000 691.440000 115.330777 -15.072872 1280.267308 691.688941 115.319340 -15.057737 -1.760735 -0.289623 1.076548
62.000000 1361.220000 11.000000 7.000000 3.000000 0.433344 16.472482 1219.190000 482.300000 125.722303 -11.252277 1218.942153 481.944530 125.739105 -11.236491 -2.104693 -0.210143 1.057765
49.000000 2124.740000 5.000000 9.000000 3.000000 0.290400 19.409126 1520.650000 1382.650000 74.523850 -28.642593 1520.363044 1382.694593 74.519416 -28.627826 -1.147653 -0.722850 1.324270
54.000000 1877.760000 7.000000 9.000000 3.000000 0.315787 18.049641 1473.720000 1088.400000 91.420824 -26.222857 1473.946841 1088.619692 91.407479 -26.234997 -1.491611 -0.643370 1.305488
76.000000 708.970000 11.000000 9.000000 3.000000 0.381553 18.750689 1377.040000 659.840000 116.188454 -20.891366 1377.350844 660.061268 116.174584 -20.909395 -2.179526 -0.484411 1.267922
4.000000 19058.790000 6.000000 2.000000 4.000000 0.315681 10.415724 595.460000 876.440000 103.845711 27.859332 595.627307 876.172300 103.861614 27.850532 -1.041386 0.381043 0.721170
10.000000 11799.930000 6.000000 6.000000 4.000000 0.713264 14.310913 1176.090000 1086.190000 91.799894 -8.308239 1176.690026 1085.804365 91.824963 -8.347529 -1.191052 -0.167492 1.141484
37.000000 3277.590000 10.000000 6.000000 4.000000 0.180265 15.668424 1055.140000 634.640000 119.131659 -0.431354 1055.312323 634.692920 119.128898 -0.442817 -1.878967 -0.008532 1.103918
80.000000 646.940000 14.000000 6.000000 4.000000 0.522671 18.712861 925.430000 261.100000 134.462354 8.036432 925.532369 260.587451 134.479972 8.029593 -2.566883 0.150428 1.066353
31.000000 4305.200000 8.000000 8.000000 4.000000 0.714362 17.325589 1283.340000 976.690000 98.704577 -15.182988 1283.708055 976.077752 98.742017 -15.205988 -1.609843 -0.362279 1.332858
19.000000 6505.450000 5.000000 1.000000 5.000000 0.043158 12.111116 399.870000 1297.190000 80.503422 37.209637 399.846738 1297.226352 80.501670 37.210632 -0.815660 0.582654 0.767323
39.000000 3125.110000 7.000000 1.000000 5.000000 0.326581 12.527431 289.690000 945.970000 98.497452 41.505106 289.963537 946.148417 98.489998 41.494921 -1.159618 0.662134 0.748540
7.000000 15486.200000 3.000000 3.000000 5.000000 0.362284 15.240033 856.140000 1702.520000 56.255354 12.958841 856.435380 1702.310238 56.262762 12.940023 -0.546535 0.228907 0.996263
11.000000 11662.160000 5.000000 3.000000 5.000000 0.378167 12.833510 780.270000 1242.530000 81.950938 17.525233 780.518419 1242.244871 81.968005 17.510064 -0.890493 0.308387 0.977480
29.000000 4413.680000 7.000000 3.000000 5.000000 0.758625 13.023240 702.520000 949.880000 100.134913 22.021811 702.431423 950.633436 100.089451 22.027125 -1.234451 0.387867 0.958697
45.000000 2612.620000 9.000000 3.000000 5.000000 0.280002 14.111940 621.540000 713.500000 112.736923 26.433158 621.455244 713.233134 112.749679 26.437604 -1.578409 0.467347 0.939915
67.000000 1183.420000 11.000000 3.000000 5.000000 0.332737 15.617069 537.370000 496.910000 121.757914 30.688758 537.238229 497.215532 121.743565 30.695337 -1.922366 0.546827 0.921132
15.000000 9107.770000 3.000000 5.000000 5.000000 0.591154 18.392477 1085.800000 1725.830000 54.494791 -2.157885 1085.733064 1726.417352 54.468681 -2.153247 -0.621369 -0.045360 1.206420
27.000000 4673.940000 7.000000 5.000000 5.000000 0.514598 14.645925 967.150000 1019.900000 96.247964 5.533310 966.883172 1020.340016 96.218999 5.551077 -1.309284 0.113600 1.168854
36.000000 3693.430000 9.000000 5.000000 5.000000 0.800264 15.347696 905.640000 804.810000 109.570661 9.495083 905.095259 804.223757 109.603115 9.530213 -1.653242 0.193079 1.150072
61.000000 1399.400000 11.000000 5.000000 5.000000 0.428409 16.583566 841.450000 613.020000 119.566875 13.538595 841.334374 613.432511 119.545952 13.546006 -1.997199 0.272559 1.131289
77.000000 706.880000 13.000000 5.000000 5.000000 0.440451 18.118130 775.110000 434.930000 127.000134 17.579355 775.439057 434.637223 127.014944 17.559351 -2.341157 0.352039 1.112506
23.000000 5182.440000 5.000000 7.000000 5.000000 0.388861 18.435805 1199.060000 1387.530000 72.519708 -9.724954 1199.423746 1387.667481 72.512532 -9.748512 -1.040159 -0.240148 1.397794
40.000000 3088.730000 7.000000 7.000000 5.000000 0.409384 17.212711 1151.050000 1115.850000 89.849396 -6.658268 1150.858008 1116.211572 89.825488 -6.645533 -1.384117 -0.160668 1.379011
52.000000 1952.150000 9.000000 7.000000 5.000000 0.209576 17.373149 1101.370000 907.290000 103.488764 -3.429301 1101.166333 907.339417 103.485896 -3.415756 -1.728075 -0.081188 1.360228
70.000000 1019.630000 11.000000 7.000000 5.000000 0.370978 18.228120 1050.010000 728.620000 114.143077 -0.061889 1050.174536 728.287506 114.161456 -0.072951 -2.072033 -0.001708 1.341446
73.000000 860.610000 7.000000 9.000000 5.000000 0.411587 20.578322 1285.920000 1221.220000 83.065916 -15.287013 1286.231579 1221.488928 83.049397 -15.306299 -1.458950 -0.434935 1.589168
81.000000 550.970000 9.000000 9.000000 5.000000 0.693815 20.089967 1244.110000 1013.220000 96.474685 -12.710501 1244.794814 1013.331393 96.466239 -12.753929 -1.802908 -0.355455 1.570385
6.000000 15825.390000 4.000000 2.000000 6.000000 0.181230 16.317362 626.120000 1661.280000 60.343626 26.480729 626.067765 1661.453540 60.336395 26.483579 -0.664768 0.509998 1.023633
25.000000 4950.230000 8.000000 2.000000 6.000000 0.300447 14.892020 467.050000 984.600000 97.245094 34.167071 467.350202 984.587883 97.246843 34.153360 -1.352683 0.668958 0.986068
71.000000 943.570000 12.000000 2.000000 6.000000 0.517047 17.464954 296.950000 544.570000 116.632413 41.129667 297.290756 544.181126 116.652451 41.116690 -2.040598 0.827918 0.948502
12.000000 10727.930000 6.000000 4.000000 6.000000 0.152182 15.730937 828.680000 1246.060000 81.594230 14.542715 828.663596 1245.908705 81.603841 14.543692 -1.083558 0.315211 1.215007
38.000000 3232.590000 10.000000 4.000000 6.000000 0.240677 16.619538 703.420000 801.020000 108.748875 21.923122 703.207612 800.906790 108.753709 21.935268 -1.771474 0.474171 1.177442
53.000000 1878.930000 4.000000 6.000000 6.000000 0.354715 20.929668 1075.860000 1633.060000 58.814864 -1.521173 1075.972024 1632.723439 58.831413 -1.528752 -0.814434 -0.038536 1.443947
28.000000 4649.480000 8.000000 6.000000 6.000000 0.553994 17.534159 977.500000 1060.310000 93.586792 4.861144 977.003496 1060.555750 93.570496 4.894100 -1.502349 0.120424 1.406382
74.000000 797.370000 10.000000 8.000000 6.000000 0.419486 20.164264 1090.080000 954.930000 100.467439 -2.665064 1090.077509 955.349479 100.440433 -2.664778 -1.921140 -0.074364 1.597756
44.000000 2634.420000 7.000000 1.000000 7.000000 0.325860 17.015739 327.890000 1321.030000 79.711463 40.142700 327.856176 1321.354100 79.695657 40.144104 -1.126957 0.870570 1.032221
69.000000 1055.910000 9.000000 1.000000 7.000000 0.259100 17.250490 245.420000 1050.380000 93.267464 43.144729 245.244273 1050.189598 93.276405 43.150921 -1.470915 0.950049 1.013438
34.000000 4044.720000 5.000000 3.000000 7.000000 0.268854 18.741600 701.050000 1560.170000 64.375701 22.299097 701.318082 1560.190361 64.372167 22.283770 -0.857833 0.516822 1.261161
26.000000 4761.410000 7.000000 3.000000 7.000000 0.474540 17.245609 638.870000 1246.590000 82.183719 25.665276 639.344520 1246.585657 82.182186 25.639539 -1.201791 0.596302 1.242378
57.000000 1646.400000 9.000000 3.000000 7.000000 0.396621 17.417792 576.200000 1016.970000 95.770189 28.896115 575.899936 1017.229363 95.754429 28.911531 -1.545748 0.675782 1.223595
72.000000 887.260000 11.000000 3.000000 7.000000 0.507909 18.347244 510.170000 824.170000 106.065860 32.105346 510.648456 823.999557 106.078456 32.082408 -1.889706 0.755262 1.204812
60.000000 1466.190000 5.000000 5.000000 7.000000 0.447209 20.560894 911.320000 1538.140000 64.024432 9.358601 911.275780 1537.694982 64.048362 9.361336 -0.932666 0.242555 1.471318
43.000000 2670.740000 7.000000 5.000000 7.000000 0.590910 18.662363 861.480000 1250.420000 81.234949 12.474659 861.070273 1249.994208 81.263044 12.500591 -1.276624 0.322035 1.452535
65.000000 1277.200000 9.000000 5.000000 7.000000 0.809316 18.525848 810.650000 1039.110000 94.869179 15.597939 809.896850 1039.406239 94.849402 15.644626 -1.620581 0.401515 1.433752
78.000000 703.030000 11.000000 5.000000 7.000000 0.404238 19.225851 757.840000 863.720000 105.492791 18.755020 757.513858 863.958830 105.477176 18.774588 -1.964539 0.480995 1.414969
79.000000 655.210000 9.000000 7.000000 7.000000 0.323424 20.450087 983.890000 1090.230000 91.601678 4.446918 984.203127 1090.310960 91.596251 4.426179 -1.695415 0.127247 1.643909
64.000000 1331.830000 6.000000 2.000000 8.000000 0.278636 20.638763 521.920000 1574.920000 65.551808 31.761022 521.782998 1574.677372 65.564802 31.767567 -0.976065 0.797914 1.288531
68.000000 1105.270000 10.000000 2.000000 8.000000 0.354003 19.555960 393.710000 1057.160000 93.164043 37.404011 393.506419 1057.449608 93.148432 37.412658 -1.663980 0.956873 1.250966
58.000000 1591.710000 8.000000 4.000000 8.000000 0.500036 19.996635 701.500000 1242.550000 82.200416 22.172824 701.493347 1242.050008 82.230778 22.173047 -1.394856 0.603126 1.479905
#UB matrix in q= (UB) B0 G* 
#[[-0.972970338 -0.211684252  0.092387858]
# [ 0.224828662 -0.775833645  0.589611463]
# [-0.053131711  0.594481576  0.802461418]]
#Umatrix in q_lab= (Umatrix) (B) B0 G* 
#[[-0.97285033  -0.21193293   0.092987466]
# [ 0.225352556 -0.775947764  0.589170004]
# [-0.052711108  0.594129196  0.802640665]]
#Bmatrix in q_lab= (U) (Bmatrix) B0 G* 
#[[ 1.000021092e+00  2.181460000e-04  7.526740000e-04]
# [ 0.000000000e+00  1.000212350e+00  2.396640000e-04]
# [-0.000000000e+00  0.000000000e+00  9.997661720e-01]]
#(B-I)*1000 
#[[ 0.021  0.218  0.753]
# [ 0.     0.212  0.24 ]
# [-0.     0.    -0.234]]
#HKL coord. of lab and sample frame axes :
#HKLx_lab_LT	[-1.    -0.218  0.095]
#HKLy_lab_LT	[ 0.29 -1.    0.76]
#HKLz_lab_LT	[-0.066  0.741  1.   ]
#HKLx_sample_LT	[-1.     0.282  0.752]
#HKLy_sample_LT	[ 0.29 -1.    0.76]
#HKLz_sample_LT	[0.989 1.    0.939]
#B0 matrix in q= UB (B0) G*
#[[ 0.17675652 -0.         -0.        ]
# [ 0.          0.17675652 -0.        ]
# [ 0.          0.          0.17675652]]
#UBB0 matrix in q= (UB B0) G* i.e. recip. basis vectors are columns in LT frame: astar = UBB0[:,0], bstar = UBB0[:,1], cstar = UBB0[:,2]. (abcstar as columns on xyzlab1, xlab1 = ui, ui = unit vector along incident beam)
#[[-0.17197885 -0.03741657  0.01633016]
# [ 0.03973993 -0.13713365  0.10421767]
# [-0.00939138  0.10507849  0.14184029]]
#Euler angles phi theta psi (deg)
#[185.107  36.642   8.909]
#deviatoric strain in direct crystal frame (10-3 unit)
#[[ 0.03  0.03 -0.02]
# [ 0.03 -0.02 -0.03]
# [-0.02 -0.03 -0.01]]
#deviatoric strain in sample2 frame (10-3 unit)
#[[ 0.01  0.03 -0.04]
# [ 0.03 -0.   -0.01]
# [-0.04 -0.01 -0.01]]
#new lattice parameters
#[ 5.6575     5.6572335  5.6572756 90.0029255 90.0019917 89.9969655]
#CCDLabel
#MARCCD165
#DetectorParameters
#[67.967, 1050.8, 1116.33, 0.154, -0.254]
#pixelsize
#0.079142
#Frame dimensions
#(2048, 2048)
#
